# Onda Corporation
# Hydrophone Calibration Data
# 
Calibration_DATE	17-Nov-2015
# 
# Hydrophone description
HYD_MFG	ONDA
HYD_MODEL	HGL
HYD_APERTURE_NOM_UM	0200
HYD_SN	1765
HYD_POLARITY	Positive
# 
# External preamplifier description
AMP_MFG	NONE
AMP_MODEL	NONE
AMP_SN	NONE
AMP_GAIN_NOM_DB	NONE
AMP_BW_MHZ	NONE
AMP_OUTPUT_IMP_NOM_OHMS	NONE
# 
# Cable/adaptor between hydrophone and preamplifier
CA_BWT_HYD_AMP	NONE 
# 
# Environment
ELECTRICAL_LOAD	OpenCircuit
WATER_TEMP_DEGC	23.5
WATER_RESISTIVITY_MOHMS-CM	3.5
#
# Calibration data
# Freq(MHz) Sens(dB re. 1V/uPa) Sens(V/Pa) Sens(V^2cm^2/W) Cap(pF)
#
DATA_FIELDS	5
DATA_FIELD	FREQ_MHz
DATA_FIELD	SENS_DB
DATA_FIELD	SENS_VPERPA
DATA_FIELD	SENS_V2CM2PERW
DATA_FIELD	CAP_PF
# End of file header
HEADER_END	0
 1.000	 -264.52	  5.945E-008	5.302E-005	     10.341
 1.050	 -264.82	  5.740E-008	4.943E-005	     10.327
 1.100	 -264.96	  5.649E-008	4.786E-005	     10.312
 1.150	 -265.21	  5.487E-008	4.516E-005	     10.298
 1.200	 -265.50	  5.311E-008	4.231E-005	     10.284
 1.250	 -265.71	  5.180E-008	4.025E-005	     10.270
 1.300	 -266.02	  5.002E-008	3.753E-005	     10.256
 1.350	 -266.06	  4.975E-008	3.713E-005	     10.242
 1.400	 -266.10	  4.957E-008	3.686E-005	     10.228
 1.450	 -266.36	  4.806E-008	3.464E-005	     10.215
 1.500	 -266.55	  4.705E-008	3.320E-005	     10.202
 1.550	 -266.72	  4.615E-008	3.194E-005	     10.189
 1.600	 -266.78	  4.583E-008	3.150E-005	     10.176
 1.650	 -266.74	  4.602E-008	3.177E-005	     10.163
 1.700	 -266.70	  4.626E-008	3.210E-005	     10.150
 1.750	 -266.56	  4.701E-008	3.315E-005	     10.138
 1.800	 -266.46	  4.754E-008	3.389E-005	     10.125
 1.850	 -266.52	  4.722E-008	3.345E-005	     10.113
 1.900	 -266.41	  4.781E-008	3.428E-005	     10.101
 1.950	 -266.28	  4.851E-008	3.530E-005	     10.089
 2.000	 -266.27	  4.856E-008	3.538E-005	     10.077
 2.050	 -266.28	  4.854E-008	3.534E-005	     10.066
 2.100	 -266.35	  4.812E-008	3.474E-005	     10.054
 2.150	 -266.47	  4.746E-008	3.379E-005	     10.043
 2.200	 -266.45	  4.758E-008	3.396E-005	     10.031
 2.250	 -266.46	  4.754E-008	3.390E-005	     10.020
 2.300	 -266.48	  4.742E-008	3.372E-005	     10.009
 2.350	 -266.52	  4.723E-008	3.346E-005	      9.998
 2.400	 -266.49	  4.737E-008	3.366E-005	      9.987
 2.450	 -266.58	  4.690E-008	3.300E-005	      9.977
 2.500	 -266.74	  4.604E-008	3.179E-005	      9.966
 2.550	 -267.02	  4.455E-008	2.978E-005	      9.956
 2.600	 -267.05	  4.440E-008	2.957E-005	      9.946
 2.650	 -266.95	  4.494E-008	3.030E-005	      9.935
 2.700	 -267.04	  4.446E-008	2.965E-005	      9.925
 2.750	 -266.85	  4.543E-008	3.096E-005	      9.915
 2.800	 -266.58	  4.688E-008	3.297E-005	      9.906
 2.850	 -266.52	  4.719E-008	3.340E-005	      9.896
 2.900	 -266.51	  4.725E-008	3.348E-005	      9.886
 2.950	 -266.39	  4.793E-008	3.446E-005	      9.877
 3.000	 -266.43	  4.768E-008	3.410E-005	      9.868
 3.050	 -266.32	  4.833E-008	3.503E-005	      9.858
 3.100	 -266.12	  4.945E-008	3.668E-005	      9.849
 3.150	 -265.99	  5.015E-008	3.773E-005	      9.840
 3.200	 -265.91	  5.063E-008	3.845E-005	      9.831
 3.250	 -265.80	  5.127E-008	3.942E-005	      9.823
 3.300	 -265.79	  5.137E-008	3.959E-005	      9.814
 3.350	 -265.77	  5.144E-008	3.970E-005	      9.805
 3.400	 -265.71	  5.183E-008	4.030E-005	      9.797
 3.450	 -265.67	  5.206E-008	4.065E-005	      9.788
 3.500	 -265.75	  5.157E-008	3.990E-005	      9.780
 3.550	 -265.70	  5.185E-008	4.033E-005	      9.772
 3.600	 -265.58	  5.257E-008	4.146E-005	      9.764
 3.650	 -265.53	  5.290E-008	4.197E-005	      9.756
 3.700	 -265.57	  5.266E-008	4.159E-005	      9.748
 3.750	 -265.63	  5.228E-008	4.099E-005	      9.740
 3.800	 -265.67	  5.208E-008	4.068E-005	      9.732
 3.850	 -265.64	  5.225E-008	4.095E-005	      9.725
 3.900	 -265.69	  5.192E-008	4.044E-005	      9.717
 3.950	 -265.78	  5.143E-008	3.967E-005	      9.710
 4.000	 -265.77	  5.148E-008	3.976E-005	      9.702
 4.050	 -265.76	  5.155E-008	3.986E-005	      9.695
 4.100	 -265.80	  5.128E-008	3.944E-005	      9.688
 4.150	 -265.90	  5.069E-008	3.854E-005	      9.681
 4.200	 -265.93	  5.055E-008	3.832E-005	      9.674
 4.250	 -265.88	  5.080E-008	3.871E-005	      9.667
 4.300	 -265.91	  5.063E-008	3.845E-005	      9.660
 4.350	 -265.90	  5.071E-008	3.857E-005	      9.653
 4.400	 -265.87	  5.086E-008	3.879E-005	      9.647
 4.450	 -265.81	  5.120E-008	3.932E-005	      9.640
 4.500	 -265.71	  5.184E-008	4.031E-005	      9.634
 4.550	 -265.66	  5.213E-008	4.077E-005	      9.627
 4.600	 -265.56	  5.273E-008	4.170E-005	      9.621
 4.650	 -265.43	  5.350E-008	4.294E-005	      9.615
 4.700	 -265.41	  5.366E-008	4.319E-005	      9.608
 4.750	 -265.52	  5.299E-008	4.211E-005	      9.602
 4.800	 -265.74	  5.163E-008	3.999E-005	      9.596
 4.850	 -265.92	  5.061E-008	3.842E-005	      9.590
 4.900	 -265.92	  5.057E-008	3.836E-005	      9.584
 4.950	 -265.88	  5.083E-008	3.875E-005	      9.579
 5.000	 -265.87	  5.089E-008	3.885E-005	      9.573
 5.050	 -265.87	  5.090E-008	3.887E-005	      9.567
 5.100	 -265.94	  5.047E-008	3.821E-005	      9.561
 5.150	 -265.96	  5.033E-008	3.800E-005	      9.556
 5.200	 -265.92	  5.058E-008	3.838E-005	      9.550
 5.250	 -265.91	  5.063E-008	3.845E-005	      9.545
 5.300	 -265.91	  5.061E-008	3.843E-005	      9.539
 5.350	 -265.92	  5.057E-008	3.836E-005	      9.534
 5.400	 -265.97	  5.027E-008	3.791E-005	      9.529
 5.450	 -266.04	  4.990E-008	3.735E-005	      9.524
 5.500	 -266.10	  4.953E-008	3.680E-005	      9.519
 5.550	 -266.10	  4.954E-008	3.681E-005	      9.514
 5.600	 -266.10	  4.955E-008	3.683E-005	      9.508
 5.650	 -266.17	  4.915E-008	3.624E-005	      9.504
 5.700	 -266.22	  4.884E-008	3.578E-005	      9.499
 5.750	 -266.22	  4.888E-008	3.583E-005	      9.494
 5.800	 -266.15	  4.926E-008	3.640E-005	      9.489
 5.850	 -266.05	  4.984E-008	3.726E-005	      9.484
 5.900	 -265.96	  5.032E-008	3.799E-005	      9.480
 5.950	 -265.93	  5.051E-008	3.827E-005	      9.475
 6.000	 -265.99	  5.020E-008	3.781E-005	      9.470
 6.050	 -266.05	  4.985E-008	3.727E-005	      9.466
 6.100	 -265.98	  5.025E-008	3.788E-005	      9.461
 6.150	 -265.91	  5.063E-008	3.845E-005	      9.457
 6.200	 -265.81	  5.123E-008	3.937E-005	      9.453
 6.250	 -265.73	  5.170E-008	4.010E-005	      9.448
 6.300	 -265.74	  5.167E-008	4.004E-005	      9.444
 6.350	 -265.72	  5.177E-008	4.020E-005	      9.440
 6.400	 -265.69	  5.197E-008	4.051E-005	      9.435
 6.450	 -265.70	  5.189E-008	4.039E-005	      9.431
 6.500	 -265.74	  5.164E-008	4.000E-005	      9.427
 6.550	 -265.72	  5.177E-008	4.020E-005	      9.423
 6.600	 -265.69	  5.193E-008	4.045E-005	      9.419
 6.650	 -265.61	  5.241E-008	4.121E-005	      9.415
 6.700	 -265.55	  5.278E-008	4.179E-005	      9.411
 6.750	 -265.51	  5.302E-008	4.217E-005	      9.407
 6.800	 -265.51	  5.303E-008	4.218E-005	      9.403
 6.850	 -265.53	  5.293E-008	4.202E-005	      9.400
 6.900	 -265.56	  5.273E-008	4.171E-005	      9.396
 6.950	 -265.59	  5.256E-008	4.143E-005	      9.392
 7.000	 -265.60	  5.251E-008	4.136E-005	      9.388
 7.050	 -265.64	  5.227E-008	4.098E-005	      9.385
 7.100	 -265.68	  5.202E-008	4.060E-005	      9.381
 7.150	 -265.71	  5.184E-008	4.030E-005	      9.377
 7.200	 -265.72	  5.177E-008	4.020E-005	      9.374
 7.250	 -265.71	  5.184E-008	4.031E-005	      9.370
 7.300	 -265.68	  5.202E-008	4.058E-005	      9.367
 7.350	 -265.63	  5.232E-008	4.106E-005	      9.363
 7.400	 -265.51	  5.306E-008	4.223E-005	      9.360
 7.450	 -265.44	  5.343E-008	4.282E-005	      9.356
 7.500	 -265.38	  5.381E-008	4.343E-005	      9.353
 7.550	 -265.39	  5.375E-008	4.333E-005	      9.350
 7.600	 -265.43	  5.350E-008	4.293E-005	      9.346
 7.650	 -265.47	  5.329E-008	4.259E-005	      9.343
 7.700	 -265.49	  5.313E-008	4.234E-005	      9.340
 7.750	 -265.48	  5.324E-008	4.252E-005	      9.336
 7.800	 -265.42	  5.360E-008	4.310E-005	      9.333
 7.850	 -265.34	  5.409E-008	4.389E-005	      9.330
 7.900	 -265.30	  5.435E-008	4.432E-005	      9.327
 7.950	 -265.31	  5.424E-008	4.413E-005	      9.324
 8.000	 -265.31	  5.424E-008	4.413E-005	      9.321
 8.050	 -265.29	  5.440E-008	4.439E-005	      9.317
 8.100	 -265.30	  5.435E-008	4.430E-005	      9.314
 8.150	 -265.30	  5.431E-008	4.424E-005	      9.311
 8.200	 -265.29	  5.438E-008	4.436E-005	      9.308
 8.250	 -265.30	  5.432E-008	4.426E-005	      9.305
 8.300	 -265.31	  5.429E-008	4.421E-005	      9.302
 8.350	 -265.29	  5.439E-008	4.438E-005	      9.299
 8.400	 -265.32	  5.418E-008	4.404E-005	      9.296
 8.450	 -265.36	  5.397E-008	4.369E-005	      9.293
 8.500	 -265.35	  5.400E-008	4.375E-005	      9.290
 8.550	 -265.38	  5.384E-008	4.349E-005	      9.288
 8.600	 -265.36	  5.394E-008	4.364E-005	      9.285
 8.650	 -265.37	  5.388E-008	4.355E-005	      9.282
 8.700	 -265.35	  5.399E-008	4.373E-005	      9.279
 8.750	 -265.40	  5.373E-008	4.330E-005	      9.276
 8.800	 -265.37	  5.388E-008	4.355E-005	      9.273
 8.850	 -265.33	  5.413E-008	4.396E-005	      9.270
 8.900	 -265.34	  5.407E-008	4.386E-005	      9.268
 8.950	 -265.37	  5.386E-008	4.352E-005	      9.265
 9.000	 -265.38	  5.380E-008	4.342E-005	      9.262
 9.050	 -265.40	  5.367E-008	4.321E-005	      9.259
 9.100	 -265.38	  5.384E-008	4.349E-005	      9.257
 9.150	 -265.37	  5.386E-008	4.351E-005	      9.254
 9.200	 -265.36	  5.397E-008	4.369E-005	      9.251
 9.250	 -265.32	  5.417E-008	4.401E-005	      9.248
 9.300	 -265.32	  5.418E-008	4.404E-005	      9.246
 9.350	 -265.29	  5.440E-008	4.440E-005	      9.243
 9.400	 -265.29	  5.442E-008	4.442E-005	      9.240
 9.450	 -265.36	  5.395E-008	4.365E-005	      9.238
 9.500	 -265.46	  5.336E-008	4.271E-005	      9.235
 9.550	 -265.55	  5.276E-008	4.176E-005	      9.232
 9.600	 -265.65	  5.217E-008	4.083E-005	      9.230
 9.650	 -265.71	  5.182E-008	4.028E-005	      9.227
 9.700	 -265.83	  5.113E-008	3.922E-005	      9.225
 9.750	 -265.92	  5.057E-008	3.835E-005	      9.222
 9.800	 -266.01	  5.004E-008	3.756E-005	      9.219
 9.850	 -266.10	  4.953E-008	3.679E-005	      9.217
 9.900	 -266.19	  4.902E-008	3.604E-005	      9.214
 9.950	 -266.33	  4.822E-008	3.488E-005	      9.211
10.000	 -266.44	  4.766E-008	3.408E-005	      9.209
10.050	 -266.55	  4.703E-008	3.318E-005	      9.206
10.100	 -266.70	  4.624E-008	3.208E-005	      9.204
10.150	 -266.82	  4.560E-008	3.119E-005	      9.201
10.200	 -266.91	  4.511E-008	3.053E-005	      9.199
10.250	 -266.99	  4.474E-008	3.002E-005	      9.196
10.300	 -267.05	  4.441E-008	2.958E-005	      9.193
10.350	 -267.13	  4.401E-008	2.906E-005	      9.191
10.400	 -267.24	  4.347E-008	2.834E-005	      9.188
10.450	 -267.36	  4.288E-008	2.758E-005	      9.186
10.500	 -267.48	  4.228E-008	2.681E-005	      9.183
10.550	 -267.59	  4.175E-008	2.614E-005	      9.181
10.600	 -267.62	  4.158E-008	2.593E-005	      9.178
10.650	 -267.62	  4.159E-008	2.595E-005	      9.176
10.700	 -267.63	  4.155E-008	2.590E-005	      9.173
10.750	 -267.60	  4.168E-008	2.605E-005	      9.170
10.800	 -267.54	  4.197E-008	2.642E-005	      9.168
10.850	 -267.46	  4.236E-008	2.692E-005	      9.165
10.900	 -267.38	  4.277E-008	2.744E-005	      9.163
10.950	 -267.27	  4.331E-008	2.814E-005	      9.160
11.000	 -267.11	  4.413E-008	2.921E-005	      9.158
11.050	 -266.98	  4.478E-008	3.008E-005	      9.155
11.100	 -266.90	  4.519E-008	3.063E-005	      9.153
11.150	 -266.84	  4.552E-008	3.108E-005	      9.150
11.200	 -266.73	  4.608E-008	3.185E-005	      9.148
11.250	 -266.60	  4.677E-008	3.281E-005	      9.145
11.300	 -266.55	  4.706E-008	3.321E-005	      9.143
11.350	 -266.51	  4.728E-008	3.353E-005	      9.140
11.400	 -266.44	  4.762E-008	3.402E-005	      9.137
11.450	 -266.40	  4.785E-008	3.435E-005	      9.135
11.500	 -266.36	  4.809E-008	3.470E-005	      9.132
11.550	 -266.28	  4.853E-008	3.533E-005	      9.130
11.600	 -266.23	  4.883E-008	3.576E-005	      9.127
11.650	 -266.16	  4.923E-008	3.635E-005	      9.125
11.700	 -266.07	  4.974E-008	3.711E-005	      9.122
11.750	 -266.02	  5.001E-008	3.751E-005	      9.120
11.800	 -265.88	  5.079E-008	3.869E-005	      9.117
11.850	 -265.73	  5.167E-008	4.005E-005	      9.114
11.900	 -265.65	  5.216E-008	4.082E-005	      9.112
11.950	 -265.56	  5.270E-008	4.165E-005	      9.109
12.000	 -265.53	  5.290E-008	4.198E-005	      9.107
12.050	 -265.50	  5.311E-008	4.231E-005	      9.104
12.100	 -265.41	  5.363E-008	4.315E-005	      9.102
12.150	 -265.35	  5.400E-008	4.374E-005	      9.099
12.200	 -265.26	  5.460E-008	4.473E-005	      9.096
12.250	 -265.20	  5.493E-008	4.525E-005	      9.094
12.300	 -265.21	  5.488E-008	4.517E-005	      9.091
12.350	 -265.22	  5.483E-008	4.509E-005	      9.089
12.400	 -265.19	  5.499E-008	4.536E-005	      9.086
12.450	 -265.21	  5.490E-008	4.520E-005	      9.083
12.500	 -265.15	  5.528E-008	4.584E-005	      9.081
12.550	 -265.08	  5.573E-008	4.660E-005	      9.078
12.600	 -265.02	  5.613E-008	4.726E-005	      9.076
12.650	 -264.97	  5.641E-008	4.773E-005	      9.073
12.700	 -264.92	  5.678E-008	4.836E-005	      9.070
12.750	 -264.93	  5.672E-008	4.826E-005	      9.068
12.800	 -264.92	  5.677E-008	4.835E-005	      9.065
12.850	 -264.84	  5.727E-008	4.920E-005	      9.063
12.900	 -264.84	  5.731E-008	4.926E-005	      9.060
12.950	 -264.88	  5.702E-008	4.877E-005	      9.057
13.000	 -264.90	  5.691E-008	4.858E-005	      9.055
13.050	 -264.90	  5.691E-008	4.859E-005	      9.052
13.100	 -264.90	  5.688E-008	4.854E-005	      9.049
13.150	 -264.91	  5.683E-008	4.845E-005	      9.047
13.200	 -264.97	  5.641E-008	4.773E-005	      9.044
13.250	 -265.04	  5.600E-008	4.704E-005	      9.042
13.300	 -265.07	  5.579E-008	4.670E-005	      9.039
13.350	 -265.08	  5.569E-008	4.652E-005	      9.036
13.400	 -265.07	  5.580E-008	4.671E-005	      9.034
13.450	 -265.05	  5.591E-008	4.688E-005	      9.031
13.500	 -265.11	  5.550E-008	4.620E-005	      9.028
13.550	 -265.14	  5.534E-008	4.593E-005	      9.026
13.600	 -265.20	  5.498E-008	4.534E-005	      9.023
13.650	 -265.30	  5.433E-008	4.428E-005	      9.020
13.700	 -265.31	  5.423E-008	4.412E-005	      9.018
13.750	 -265.35	  5.402E-008	4.378E-005	      9.015
13.800	 -265.47	  5.327E-008	4.256E-005	      9.012
13.850	 -265.56	  5.273E-008	4.171E-005	      9.010
13.900	 -265.49	  5.315E-008	4.237E-005	      9.007
13.950	 -265.44	  5.345E-008	4.285E-005	      9.004
14.000	 -265.45	  5.340E-008	4.277E-005	      9.002
14.050	 -265.49	  5.316E-008	4.238E-005	      8.999
14.100	 -265.51	  5.305E-008	4.222E-005	      8.996
14.150	 -265.54	  5.285E-008	4.190E-005	      8.994
14.200	 -265.59	  5.253E-008	4.139E-005	      8.991
14.250	 -265.57	  5.264E-008	4.157E-005	      8.988
14.300	 -265.60	  5.249E-008	4.133E-005	      8.986
14.350	 -265.66	  5.213E-008	4.077E-005	      8.983
14.400	 -265.66	  5.211E-008	4.073E-005	      8.980
14.450	 -265.71	  5.181E-008	4.026E-005	      8.978
14.500	 -265.75	  5.160E-008	3.994E-005	      8.975
14.550	 -265.72	  5.179E-008	4.023E-005	      8.972
14.600	 -265.69	  5.192E-008	4.044E-005	      8.970
14.650	 -265.68	  5.197E-008	4.052E-005	      8.967
14.700	 -265.66	  5.212E-008	4.075E-005	      8.964
14.750	 -265.69	  5.195E-008	4.049E-005	      8.962
14.800	 -265.64	  5.226E-008	4.097E-005	      8.959
14.850	 -265.64	  5.223E-008	4.091E-005	      8.956
14.900	 -265.60	  5.248E-008	4.131E-005	      8.954
14.950	 -265.61	  5.245E-008	4.126E-005	      8.951
15.000	 -265.57	  5.264E-008	4.157E-005	      8.948
15.050	 -265.53	  5.291E-008	4.200E-005	      8.946
15.100	 -265.54	  5.284E-008	4.188E-005	      8.943
15.150	 -265.52	  5.296E-008	4.208E-005	      8.940
15.200	 -265.45	  5.338E-008	4.275E-005	      8.938
15.250	 -265.49	  5.314E-008	4.236E-005	      8.935
15.300	 -265.39	  5.375E-008	4.334E-005	      8.933
15.350	 -265.30	  5.431E-008	4.424E-005	      8.930
15.400	 -265.33	  5.412E-008	4.393E-005	      8.927
15.450	 -265.32	  5.422E-008	4.410E-005	      8.925
15.500	 -265.32	  5.421E-008	4.408E-005	      8.922
15.550	 -265.18	  5.506E-008	4.547E-005	      8.920
15.600	 -265.20	  5.498E-008	4.535E-005	      8.917
15.650	 -265.10	  5.561E-008	4.639E-005	      8.914
15.700	 -264.99	  5.629E-008	4.753E-005	      8.912
15.750	 -264.98	  5.636E-008	4.765E-005	      8.909
15.800	 -265.03	  5.607E-008	4.716E-005	      8.907
15.850	 -265.06	  5.586E-008	4.680E-005	      8.904
15.900	 -265.10	  5.562E-008	4.640E-005	      8.902
15.950	 -265.14	  5.535E-008	4.595E-005	      8.899
16.000	 -265.14	  5.533E-008	4.591E-005	      8.897
16.050	 -265.14	  5.530E-008	4.588E-005	      8.894
16.100	 -265.17	  5.514E-008	4.561E-005	      8.892
16.150	 -265.18	  5.511E-008	4.556E-005	      8.889
16.200	 -265.22	  5.484E-008	4.511E-005	      8.887
16.250	 -265.16	  5.520E-008	4.570E-005	      8.884
16.300	 -265.10	  5.557E-008	4.632E-005	      8.882
16.350	 -265.19	  5.505E-008	4.546E-005	      8.880
16.400	 -265.26	  5.455E-008	4.463E-005	      8.877
16.450	 -265.23	  5.475E-008	4.497E-005	      8.875
16.500	 -265.27	  5.452E-008	4.458E-005	      8.872
16.550	 -265.34	  5.408E-008	4.387E-005	      8.870
16.600	 -265.30	  5.436E-008	4.432E-005	      8.868
16.650	 -265.22	  5.484E-008	4.511E-005	      8.865
16.700	 -265.29	  5.437E-008	4.434E-005	      8.863
16.750	 -265.16	  5.519E-008	4.568E-005	      8.861
16.800	 -265.11	  5.554E-008	4.627E-005	      8.859
16.850	 -265.06	  5.587E-008	4.683E-005	      8.856
16.900	 -265.06	  5.588E-008	4.683E-005	      8.854
16.950	 -265.03	  5.606E-008	4.713E-005	      8.852
17.000	 -265.02	  5.607E-008	4.716E-005	      8.850
17.050	 -264.98	  5.634E-008	4.762E-005	      8.848
17.100	 -264.96	  5.651E-008	4.790E-005	      8.845
17.150	 -264.93	  5.667E-008	4.817E-005	      8.843
17.200	 -264.87	  5.706E-008	4.884E-005	      8.841
17.250	 -264.89	  5.695E-008	4.865E-005	      8.839
17.300	 -264.92	  5.679E-008	4.837E-005	      8.837
17.350	 -264.89	  5.698E-008	4.870E-005	      8.835
17.400	 -264.85	  5.724E-008	4.915E-005	      8.833
17.450	 -264.86	  5.718E-008	4.904E-005	      8.831
17.500	 -264.91	  5.682E-008	4.843E-005	      8.829
17.550	 -264.86	  5.712E-008	4.893E-005	      8.827
17.600	 -264.92	  5.679E-008	4.837E-005	      8.825
17.650	 -264.89	  5.695E-008	4.865E-005	      8.824
17.700	 -264.87	  5.709E-008	4.889E-005	      8.822
17.750	 -264.91	  5.683E-008	4.845E-005	      8.820
17.800	 -264.98	  5.639E-008	4.770E-005	      8.818
17.850	 -264.97	  5.644E-008	4.779E-005	      8.816
17.900	 -264.94	  5.665E-008	4.813E-005	      8.815
17.950	 -264.97	  5.646E-008	4.782E-005	      8.813
18.000	 -265.09	  5.567E-008	4.649E-005	      8.811
18.050	 -265.08	  5.570E-008	4.655E-005	      8.810
18.100	 -264.99	  5.630E-008	4.755E-005	      8.808
18.150	 -264.96	  5.649E-008	4.787E-005	      8.807
18.200	 -264.96	  5.648E-008	4.784E-005	      8.805
18.250	 -265.01	  5.619E-008	4.737E-005	      8.804
18.300	 -265.03	  5.606E-008	4.714E-005	      8.802
18.350	 -265.05	  5.592E-008	4.691E-005	      8.801
18.400	 -265.08	  5.571E-008	4.656E-005	      8.799
18.450	 -265.16	  5.521E-008	4.572E-005	      8.798
18.500	 -265.19	  5.499E-008	4.536E-005	      8.797
18.550	 -265.09	  5.564E-008	4.643E-005	      8.796
18.600	 -265.08	  5.571E-008	4.655E-005	      8.794
18.650	 -265.04	  5.600E-008	4.704E-005	      8.793
18.700	 -265.02	  5.609E-008	4.720E-005	      8.792
18.750	 -265.04	  5.595E-008	4.696E-005	      8.791
18.800	 -265.06	  5.582E-008	4.673E-005	      8.790
18.850	 -265.10	  5.561E-008	4.638E-005	      8.789
18.900	 -265.10	  5.561E-008	4.639E-005	      8.788
18.950	 -265.06	  5.583E-008	4.675E-005	      8.787
19.000	 -264.94	  5.661E-008	4.806E-005	      8.786
19.050	 -265.01	  5.615E-008	4.730E-005	      8.785
19.100	 -265.04	  5.597E-008	4.700E-005	      8.785
19.150	 -265.00	  5.624E-008	4.745E-005	      8.784
19.200	 -264.96	  5.647E-008	4.783E-005	      8.783
19.250	 -264.96	  5.648E-008	4.785E-005	      8.783
19.300	 -264.97	  5.642E-008	4.774E-005	      8.782
19.350	 -264.94	  5.664E-008	4.812E-005	      8.782
19.400	 -264.93	  5.670E-008	4.821E-005	      8.781
19.450	 -264.94	  5.664E-008	4.812E-005	      8.781
19.500	 -264.94	  5.662E-008	4.808E-005	      8.781
19.550	 -265.01	  5.618E-008	4.734E-005	      8.780
19.600	 -264.97	  5.641E-008	4.772E-005	      8.780
19.650	 -264.98	  5.635E-008	4.763E-005	      8.780
19.700	 -264.95	  5.658E-008	4.802E-005	      8.780
19.750	 -265.01	  5.617E-008	4.732E-005	      8.780
19.800	 -265.05	  5.593E-008	4.691E-005	      8.780
19.850	 -265.00	  5.622E-008	4.741E-005	      8.780
19.900	 -264.96	  5.650E-008	4.788E-005	      8.780
19.950	 -264.92	  5.674E-008	4.829E-005	      8.780
20.000	 -264.88	  5.699E-008	4.871E-005	      8.780
