# Onda Corporation
# Hydrophone Preamplifier Calibration Data
#
FILE_NAME AG-A2010-20-060-1132_151117.txt
#
AMP_CAL_DATE 17-Nov-2015
AMP_MFG ONDA
AMP_MODEL AG-A2010
AMP_SN 1132
AMP_GAIN_NOM_DB 20
AMP_BW_NOM_MHZ 060
AMP_OUTPUT_IMP_NOM_OHMS 50
AMP_INPUT_CAP_NOM_PF 6.2 
AMP_INPUT_CAP_DATA_TYPE CALIBRATED
AMP_GAIN_UNCERT_DB 0.03
AMP_CAP_UNCERT_PCT 2.5
#
# Calibration Data
# Freq(MHz) Gain(dB) Phase(deg) Cap(pF)
#
DATA_FIELDS 4
DATA_FIELD FREQ_MHZ
DATA_FIELD GAIN_DB
DATA_FIELD PHASE_DEG
DATA_FIELD CAP_PF
#
# End of file header
HEADER_END 0
000.050 19.50 21.27 6.18
000.051 19.51 20.73 6.18
000.052 19.52 20.18 6.18
000.053 19.51 19.77 6.18
000.054 19.50 19.37 6.18
000.055 19.50 19.00 6.18
000.056 19.51 18.64 6.18
000.057 19.52 18.29 6.18
000.058 19.51 17.95 6.18
000.059 19.49 17.61 6.18
000.060 19.49 17.35 6.18
000.061 19.50 17.18 6.18
000.062 19.50 17.00 6.18
000.063 19.50 16.71 6.18
000.064 19.50 16.42 6.18
000.065 19.50 16.15 6.18
000.066 19.50 15.90 6.18
000.067 19.51 15.65 6.18
000.068 19.50 15.50 6.18
000.069 19.50 15.35 6.18
000.070 19.51 15.21 6.18
000.071 19.53 15.06 6.18
000.072 19.55 14.90 6.18
000.073 19.55 14.69 6.18
000.074 19.55 14.47 6.18
000.075 19.56 14.32 6.18
000.076 19.57 14.21 6.18
000.077 19.57 14.07 6.18
000.078 19.58 13.85 6.18
000.079 19.59 13.62 6.18
000.080 19.60 13.52 6.18
000.081 19.60 13.47 6.18
000.082 19.61 13.40 6.18
000.083 19.63 13.24 6.18
000.084 19.64 13.08 6.18
000.085 19.65 12.90 6.18
000.086 19.65 12.70 6.18
000.087 19.65 12.54 6.18
000.088 19.66 12.43 6.18
000.089 19.67 12.33 6.18
000.090 19.69 12.22 6.18
000.091 19.72 12.09 6.18
000.092 19.73 11.95 6.18
000.093 19.73 11.76 6.18
000.094 19.72 11.57 6.18
000.095 19.73 11.45 6.18
000.096 19.75 11.35 6.18
000.097 19.76 11.23 6.18
000.098 19.76 11.06 6.18
000.099 19.77 10.90 6.18
000.100 19.66 13.42 6.18
000.110 19.70 12.26 6.18
000.120 19.76 11.26 6.18
000.130 19.79 10.29 6.18
000.140 19.79 9.54 6.18
000.150 19.81 8.81 6.18
000.160 19.83 8.18 6.18
000.170 19.86 7.73 6.18
000.180 19.85 7.30 6.18
000.190 19.85 6.79 6.18
000.200 19.86 6.28 6.18
000.210 19.87 6.00 6.18
000.220 19.88 5.70 6.18
000.230 19.88 5.39 6.18
000.240 19.89 5.14 6.18
000.250 19.89 4.73 6.18
000.260 19.89 4.59 6.18
000.270 19.89 4.44 6.18
000.280 19.89 4.10 6.18
000.290 19.89 3.91 6.18
000.300 19.90 3.80 6.18
000.310 19.90 3.52 6.18
000.320 19.90 3.39 6.18
000.330 19.91 3.20 6.18
000.340 19.90 3.14 6.18
000.350 19.91 2.93 6.18
000.360 19.91 2.74 6.18
000.370 19.92 2.64 6.18
000.380 19.91 2.50 6.18
000.390 19.91 2.35 6.18
000.400 19.92 2.36 6.18
000.410 19.92 2.11 6.18
000.420 19.92 2.02 6.18
000.430 19.92 2.02 6.18
000.440 19.92 1.75 6.18
000.450 19.92 1.76 6.18
000.460 19.93 1.59 6.18
000.470 19.93 1.60 6.18
000.480 19.94 1.36 6.18
000.490 19.93 1.31 6.18
000.500 19.94 1.18 6.18
000.510 19.94 1.23 6.18
000.520 19.93 0.98 6.18
000.530 19.95 1.03 6.18
000.540 19.95 0.93 6.18
000.550 19.95 0.83 6.18
000.560 19.94 0.73 6.18
000.570 19.95 0.69 6.18
000.580 19.94 0.58 6.18
000.590 19.96 0.48 6.18
000.600 19.96 0.52 6.18
000.610 19.96 0.39 6.18
000.620 19.95 0.25 6.18
000.630 19.95 0.15 6.18
000.640 19.96 0.06 6.18
000.650 19.96 0.06 6.18
000.660 19.95 0.02 6.18
000.670 19.97 -0.06 6.18
000.680 19.95 -0.21 6.18
000.690 19.96 -0.14 6.18
000.700 19.98 -0.14 6.18
000.710 19.97 -0.30 6.18
000.720 19.97 -0.35 6.18
000.730 19.97 -0.44 6.18
000.740 19.98 -0.31 6.18
000.750 19.96 -0.53 6.18
000.760 19.96 -0.57 6.18
000.770 19.97 -0.64 6.18
000.780 19.96 -0.78 6.18
000.790 19.97 -0.70 6.18
000.800 19.98 -0.78 6.18
000.810 19.95 -0.91 6.18
000.820 19.98 -1.04 6.18
000.830 19.97 -0.99 6.18
000.840 19.96 -1.12 6.18
000.850 19.98 -1.14 6.18
000.860 19.97 -1.15 6.18
000.870 19.97 -1.17 6.18
000.880 19.97 -1.32 6.18
000.890 19.97 -1.45 6.18
000.900 19.97 -1.43 6.18
000.910 19.97 -1.42 6.18
000.920 19.97 -1.44 6.18
000.930 19.98 -1.48 6.18
000.940 19.98 -1.63 6.18
000.950 19.96 -1.76 6.18
000.960 19.97 -1.71 6.18
000.970 19.98 -1.80 6.18
000.980 19.98 -1.81 6.18
000.990 19.97 -1.87 6.18
001.000 19.98 -1.90 6.15
001.100 19.98 -2.41 6.15
001.200 19.98 -2.92 6.15
001.300 19.97 -3.43 6.15
001.400 19.99 -3.87 6.16
001.500 20.00 -4.29 6.16
001.600 20.00 -4.72 6.16
001.700 20.00 -5.14 6.16
001.800 20.01 -5.57 6.16
001.900 20.01 -6.00 6.16
002.000 20.01 -6.44 6.16
002.100 20.00 -6.88 6.16
002.200 20.01 -7.31 6.16
002.300 20.00 -7.76 6.16
002.400 19.99 -8.21 6.16
002.500 19.99 -8.67 6.16
002.600 19.97 -9.05 6.16
002.700 19.96 -9.38 6.17
002.800 19.95 -9.71 6.17
002.900 19.93 -10.07 6.17
003.000 19.93 -10.49 6.17
003.100 19.92 -10.91 6.17
003.200 19.92 -11.32 6.17
003.300 19.92 -11.68 6.17
003.400 19.92 -12.05 6.17
003.500 19.92 -12.41 6.17
003.600 19.92 -12.75 6.17
003.700 19.91 -13.09 6.17
003.800 19.90 -13.43 6.17
003.900 19.90 -13.84 6.18
004.000 19.90 -14.25 6.18
004.100 19.90 -14.66 6.18
004.200 19.89 -15.04 6.18
004.300 19.88 -15.43 6.18
004.400 19.87 -15.81 6.18
004.500 19.86 -16.14 6.18
004.600 19.86 -16.46 6.18
004.700 19.86 -16.78 6.18
004.800 19.85 -17.16 6.18
004.900 19.85 -17.54 6.18
005.000 19.85 -17.93 6.18
005.100 19.84 -18.28 6.19
005.200 19.84 -18.61 6.19
005.300 19.83 -18.94 6.19
005.400 19.83 -19.31 6.19
005.500 19.82 -19.71 6.19
005.600 19.81 -20.11 6.19
005.700 19.80 -20.48 6.19
005.800 19.80 -20.80 6.19
005.900 19.80 -21.13 6.19
006.000 19.80 -21.46 6.19
006.100 19.79 -21.80 6.19
006.200 19.77 -22.14 6.19
006.300 19.76 -22.49 6.19
006.400 19.75 -22.85 6.20
006.500 19.75 -23.21 6.20
006.600 19.74 -23.58 6.20
006.700 19.72 -23.96 6.20
006.800 19.71 -24.34 6.20
006.900 19.70 -24.72 6.20
007.000 19.70 -25.09 6.20
007.100 19.70 -25.46 6.20
007.200 19.69 -25.83 6.20
007.300 19.68 -26.13 6.20
007.400 19.67 -26.42 6.20
007.500 19.66 -26.71 6.20
007.600 19.64 -27.07 6.21
007.700 19.63 -27.44 6.21
007.800 19.62 -27.81 6.21
007.900 19.61 -28.09 6.21
008.000 19.61 -28.35 6.21
008.100 19.60 -28.61 6.21
008.200 19.59 -29.02 6.21
008.300 19.57 -29.49 6.21
008.400 19.55 -29.95 6.21
008.500 19.54 -30.30 6.21
008.600 19.53 -30.56 6.21
008.700 19.53 -30.82 6.21
008.800 19.52 -31.13 6.22
008.900 19.50 -31.49 6.22
009.000 19.49 -31.85 6.22
009.100 19.47 -32.21 6.22
009.200 19.47 -32.58 6.22
009.300 19.46 -32.94 6.22
009.400 19.45 -33.30 6.22
009.500 19.45 -33.64 6.22
009.600 19.45 -33.99 6.22
009.700 19.44 -34.22 6.22
009.800 19.42 -34.01 6.22
009.900 19.41 -33.79 6.22
010.000 19.39 -33.67 6.22
011.000 19.26 -38.47 6.23
012.000 19.14 -41.64 6.24
013.000 19.01 -44.78 6.25
014.000 18.88 -47.84 6.26
015.000 18.75 -50.78 6.27
016.000 18.63 -53.71 6.27
017.000 18.49 -56.49 6.28
018.000 18.36 -59.26 6.29
019.000 18.26 -61.92 6.30
020.000 18.10 -64.64 6.31
021.000 18.00 -67.27 6.31
022.000 17.89 -69.90 6.32
023.000 17.78 -72.49 6.33
024.000 17.67 -75.13 6.34
025.000 17.57 -77.63 6.35
026.000 17.47 -80.25 6.36
027.000 17.37 -82.70 6.35
028.000 17.26 -85.30 6.35
029.000 17.19 -87.82 6.38
030.000 17.09 -90.39 6.39
031.000 16.98 -92.96 6.39
032.000 16.89 -95.49 6.41
033.000 16.81 -98.05 6.41
034.000 16.71 -100.59 6.43
035.000 16.60 -103.04 6.44
036.000 16.53 -105.62 6.45
037.000 16.44 -108.15 6.46
038.000 16.36 -110.64 6.47
039.000 16.27 -113.10 6.49
040.000 16.18 -115.57 6.50
041.000 16.09 -118.08 6.51
042.000 16.00 -120.55 6.52
043.000 15.93 -123.06 6.54
044.000 15.85 -125.56 6.54
045.000 15.76 -128.06 6.56
046.000 15.69 -130.71 6.57
047.000 15.62 -133.09 6.58
048.000 15.53 -135.68 6.60
049.000 15.46 -138.21 6.61
050.000 15.38 -140.73 6.62
051.000 15.31 -143.22 6.62
052.000 15.22 -145.82 6.64
053.000 15.14 -148.33 6.65
054.000 15.07 -151.08 6.66
055.000 15.00 -153.59 6.67
056.000 14.91 -156.20 6.69
057.000 14.85 -158.77 6.69
058.000 14.75 -161.35 6.71
059.000 14.68 -164.08 6.72
060.000 14.59 -166.79 6.72
061.000 14.51 -169.45 6.73
062.000 14.43 -172.16 6.74
063.000 14.34 -174.94 6.75
064.000 14.23 -177.67 6.76
065.000 14.16 -180.39 6.77
066.000 14.05 -183.10 6.78
067.000 13.95 -186.00 6.78
068.000 13.84 -188.58 6.79
069.000 13.73 -191.50 6.80
070.000 13.62 -194.27 6.80
071.000 13.51 -197.06 6.81
072.000 13.37 -199.79 6.82
073.000 13.27 -202.65 6.84
074.000 13.13 -205.49 6.84
075.000 13.02 -208.23 6.85
076.000 12.88 -211.05 6.86
077.000 12.73 -213.80 6.87
078.000 12.59 -216.55 6.88
079.000 12.43 -219.39 6.89
080.000 12.30 -222.16 6.90
081.000 12.14 -224.88 6.92
082.000 11.98 -227.63 6.94
083.000 11.82 -230.27 6.94
084.000 11.66 -232.96 6.95
085.000 11.47 -235.65 6.96
086.000 11.30 -238.41 6.97
087.000 11.13 -241.00 6.98
088.000 10.97 -243.61 7.00
089.000 10.78 -246.25 7.01
090.000 10.60 -248.75 7.03
091.000 10.43 -251.37 7.04
092.000 10.23 -253.99 7.06
093.000 10.05 -256.39 7.07
094.000 9.86 -258.88 7.08
095.000 9.67 -261.38 7.09
096.000 9.50 -263.85 7.11
097.000 9.32 -266.36 7.13
098.000 9.14 -268.64 7.14
099.000 8.92 -271.07 7.16
100.000 8.73 -273.34 7.17
